# MarkerIndex 
# TiltAngle (degrees)
# PositionX (px)
# PositionY (px)
# 
  0  -60.000  1113.40   243.90
  0  -58.000  1096.10   247.70
  0  -56.000  1089.90   251.80
  0  -54.000  1070.40   256.90
  0  -52.000  1053.60   258.70
  0  -50.000  1053.70   260.20
  0  -48.000  1040.50   268.50
  0  -46.000  1032.40   271.30
  0  -44.000  1022.60   274.80
  0  -42.000  1008.30   276.30
  0  -40.000  1002.80   285.60
  0  -38.000  1001.70   289.80
  0  -36.000   999.30   293.80
  0  -34.000   989.80   296.60
  0  -32.000   989.90   301.80
  0  -30.000   992.90   304.40
  0  -28.000   990.20   307.80
  0  -26.000   993.10   309.50
  0  -24.000   996.10   310.40
  0  -22.000   999.10   311.90
  0  -20.000   999.80   314.30
  0  -18.000  1016.80   310.70
  0  -16.000  1028.20   312.20
  0  -14.000  1038.50   311.30
  0  -12.000  1048.40   310.50
  0  -10.000  1057.40   307.80
  0   -8.000  1069.20   305.80
  0   -6.000  1084.60   305.40
  0   -4.000  1096.20   305.20
  0   -2.000  1110.70   304.80
  0    0.000  1128.80   301.10
  0    2.000  1145.60   297.40
  0    4.000  1164.60   297.30
  0    6.000  1177.40   292.40
  0    8.000  1195.70   290.40
  0   10.000  1209.20   287.30
  0   12.000  1219.20   284.30
  0   14.000  1228.30   285.20
  0   16.000  1226.80   287.20
  0   18.000  1203.40   266.50
  0   20.000  1207.90   264.40
  0   22.000  1223.10   262.80
  0   24.000  1239.70   262.30
  0   26.000  1248.20   257.40
  0   28.000  1265.90   256.30
  0   30.000  1281.50   252.80
  0   32.000  1294.70   250.70
  0   34.000  1316.60   248.10
  0   36.000  1334.30   245.90
  0   38.000  1353.90   244.70
  0   40.000  1374.10   242.40
  0   42.000  1391.80   240.10
  0   44.000  1402.90   238.40
  0   46.000  1429.30   234.60
  0   48.000  1440.30   234.70
  0   50.000  1469.30   231.20
  0   52.000  1490.60   228.80
  0   54.000  1506.70   229.50
  0   56.000  1522.40   228.90
  1  -60.000   919.61   679.40
  1  -58.000   893.21   683.80
  1  -56.000   878.11   688.20
  1  -54.000   849.81   693.60
  1  -52.000   824.91   695.80
  1  -50.000   816.61   698.40
  1  -48.000   795.61   706.50
  1  -46.000   780.41   709.80
  1  -44.000   763.61   713.90
  1  -42.000   743.51   717.10
  1  -40.000   731.41   725.60
  1  -38.000   724.91   730.40
  1  -36.000   716.91   734.70
  1  -34.000   702.71   738.10
  1  -32.000   698.71   742.90
  1  -30.000   697.31   745.70
  1  -28.000   690.31   748.50
  1  -26.000   690.81   751.40
  1  -24.000   691.41   752.60
  1  -22.000   691.81   754.60
  1  -20.000   690.61   756.40
  1  -18.000   705.81   753.20
  1  -16.000   716.21   754.60
  1  -14.000   725.81   754.40
  1  -12.000   735.71   754.70
  1  -10.000   744.61   751.30
  1   -8.000   756.91   749.30
  1   -6.000   773.61   748.80
  1   -4.000   786.31   748.20
  1   -2.000   802.81   747.90
  1    0.000   822.81   743.20
  1    2.000   842.41   739.80
  1    4.000   864.51   739.70
  1    6.000   880.61   734.80
  1    8.000   902.61   731.90
  1   10.000   920.31   729.40
  1   12.000   934.81   726.60
  1   14.000   947.51   728.10
  1   16.000   950.51   730.50
  1   18.000   935.71   705.80
  1   20.000   946.31   703.40
  1   22.000   968.11   701.50
  1   24.000   991.11   699.70
  1   26.000  1006.71   695.10
  1   28.000  1032.21   693.30
  1   30.000  1055.41   689.50
  1   32.000  1076.51   687.30
  1   34.000  1106.91   684.10
  1   36.000  1133.41   680.80
  1   38.000  1161.61   679.30
  1   40.000  1190.31   675.90
  1   42.000  1217.81   672.50
  1   44.000  1238.51   670.10
  1   46.000  1275.81   665.10
  1   48.000  1296.81   665.30
  1   50.000  1335.71   661.50
  1   52.000  1367.21   657.60
  1   54.000  1394.41   657.50
  1   56.000  1420.41   656.80
  2  -60.000  2434.78   822.79
  2  -58.000  2486.68   822.39
  2  -56.000  2548.88   820.49
  2  -54.000  2596.18   820.09
  2  -52.000  2644.48   817.49
  2  -50.000  2706.38   814.79
  2  -48.000  2754.38   818.19
  2  -46.000  2805.68   817.29
  2  -44.000  2853.28   816.49
  2  -42.000  2892.88   814.19
  2  -40.000  2940.18   819.49
  2  -38.000  2990.08   821.19
  2  -36.000  3036.08   821.79
  2  -34.000  3071.28   820.89
  2  -32.000  3114.88   823.09
  2  -30.000  3158.58   823.49
  2  -28.000  3193.08   824.29
  2  -26.000  3231.58   823.89
  2  -24.000  3268.28   822.59
  2  -22.000  3301.58   822.39
  2  -20.000  3331.08   822.19
  2  -18.000  3372.38   817.19
  2  -16.000  3406.38   817.59
  2  -14.000  3435.58   815.09
  2  -12.000  3461.08   813.59
  2  -10.000  3484.38   809.89
  2   -8.000  3507.38   807.69
  2   -6.000  3531.18   806.79
  2   -4.000  3547.18   806.59
  2   -2.000  3563.18   806.19
  2    0.000  3580.58   802.19
  2    2.000  3593.18   799.49
  2    4.000  3606.28   800.29
  2    6.000  3610.38   796.59
  2    8.000  3618.48   796.39
  2   10.000  3620.38   795.29
  2   12.000  3619.08   795.39
  2   14.000  3616.68   798.89
  2   16.000  3603.28   805.29
  2   18.000  3508.48   783.09
  2   20.000  3484.48   783.49
  2   22.000  3467.08   785.09
  2   24.000  3447.78   787.59
  2   26.000  3418.78   785.89
  2   28.000  3396.08   787.69
  2   30.000  3368.68   788.39
  2   32.000  3337.08   790.49
  2   34.000  3311.48   791.59
  2   36.000  3279.08   793.19
  2   38.000  3246.58   796.29
  2   40.000  3211.38   798.19
  2   42.000  3173.08   800.09
  2   44.000  3126.58   802.59
  2   46.000  3091.68   803.79
  2   48.000  3040.28   808.69
  2   50.000  3004.08   810.59
  2   52.000  2958.18   813.09
  2   54.000  2905.38   819.09
  2   56.000  2851.18   824.39
  3  -60.000  1588.30  1003.60
  3  -58.000  1591.50  1005.20
  3  -56.000  1604.60  1007.20
  3  -54.000  1603.90  1010.90
  3  -52.000  1605.60  1011.40
  3  -50.000  1623.30  1012.10
  3  -48.000  1627.70  1018.40
  3  -46.000  1636.20  1020.30
  3  -44.000  1643.80  1022.80
  3  -42.000  1644.60  1023.20
  3  -40.000  1654.30  1031.40
  3  -38.000  1667.60  1034.40
  3  -36.000  1678.80  1037.90
  3  -34.000  1681.70  1039.70
  3  -32.000  1694.50  1043.80
  3  -30.000  1708.40  1045.50
  3  -28.000  1715.30  1048.10
  3  -26.000  1728.20  1049.20
  3  -24.000  1740.10  1049.50
  3  -22.000  1751.10  1050.60
  3  -20.000  1759.50  1052.40
  3  -18.000  1782.20  1048.30
  3  -16.000  1799.30  1049.60
  3  -14.000  1813.80  1048.40
  3  -12.000  1827.10  1047.90
  3  -10.000  1839.30  1044.70
  3   -8.000  1852.90  1042.90
  3   -6.000  1870.30  1043.10
  3   -4.000  1881.80  1042.50
  3   -2.000  1895.80  1041.80
  3    0.000  1912.40  1038.10
  3    2.000  1926.40  1034.70
  3    4.000  1942.80  1035.40
  3    6.000  1951.70  1031.50
  3    8.000  1966.10  1029.50
  3   10.000  1974.50  1027.30
  3   12.000  1978.70  1025.50
  3   14.000  1981.20  1027.80
  3   16.000  1972.60  1031.80
  3   18.000  1932.70  1007.80
  3   20.000  1927.60  1006.90
  3   22.000  1932.30  1006.30
  3   24.000  1936.90  1006.50
  3   26.000  1933.30  1003.20
  3   28.000  1937.90  1002.50
  3   30.000  1940.30  1000.60
  3   32.000  1938.30   999.80
  3   34.000  1944.90   998.30
  3   36.000  1946.40   997.20
  3   38.000  1949.30   997.50
  3   40.000  1952.40   996.30
  3   42.000  1952.50   995.50
  3   44.000  1945.50   995.40
  3   46.000  1953.70   993.70
  3   48.000  1945.20   994.80
  3   50.000  1953.80   993.50
  3   52.000  1953.70   992.30
  3   54.000  1948.90   995.20
  3   56.000  1942.40   997.10
  4  -60.000  1532.50  1137.89
  4  -58.000  1531.20  1140.39
  4  -56.000  1540.60  1143.09
  4  -54.000  1536.70  1146.69
  4  -52.000  1533.60  1148.19
  4  -50.000  1547.20  1149.09
  4  -48.000  1547.40  1155.59
  4  -46.000  1552.10  1157.69
  4  -44.000  1555.30  1160.19
  4  -42.000  1552.40  1161.39
  4  -40.000  1558.60  1169.19
  4  -38.000  1569.70  1172.59
  4  -36.000  1576.80  1175.69
  4  -34.000  1576.60  1177.79
  4  -32.000  1586.70  1182.79
  4  -30.000  1598.50  1184.49
  4  -28.000  1603.40  1187.29
  4  -26.000  1613.70  1188.79
  4  -24.000  1623.60  1189.19
  4  -22.000  1632.70  1190.39
  4  -20.000  1639.50  1191.69
  4  -18.000  1660.30  1188.29
  4  -16.000  1675.70  1189.49
  4  -14.000  1689.40  1188.49
  4  -12.000  1701.60  1187.69
  4  -10.000  1712.20  1184.59
  4   -8.000  1724.90  1183.09
  4   -6.000  1741.50  1182.79
  4   -4.000  1752.60  1182.59
  4   -2.000  1765.80  1182.09
  4    0.000  1782.60  1178.09
  4    2.000  1797.10  1175.09
  4    4.000  1813.50  1175.59
  4    6.000  1822.70  1171.29
  4    8.000  1837.20  1169.59
  4   10.000  1846.90  1167.49
  4   12.000  1851.20  1165.39
  4   14.000  1854.20  1167.19
  4   16.000  1846.10  1171.49
  4   18.000  1808.70  1147.19
  4   20.000  1805.10  1146.09
  4   22.000  1812.20  1145.29
  4   24.000  1818.20  1145.39
  4   26.000  1816.60  1141.79
  4   28.000  1823.30  1141.29
  4   30.000  1827.20  1139.19
  4   32.000  1827.70  1138.29
  4   34.000  1836.90  1136.59
  4   36.000  1841.80  1135.29
  4   38.000  1847.20  1135.69
  4   40.000  1853.20  1134.29
  4   42.000  1856.50  1132.79
  4   44.000  1852.70  1132.09
  4   46.000  1863.90  1129.69
  4   48.000  1859.30  1130.79
  4   50.000  1871.20  1128.89
  4   52.000  1874.60  1127.69
  4   54.000  1873.80  1129.89
  4   56.000  1871.80  1131.29
  5  -60.000  1392.09  2240.80
  5  -58.000  1373.39  2244.50
  5  -56.000  1365.79  2248.40
  5  -54.000  1346.19  2253.50
  5  -52.000  1327.39  2255.60
  5  -50.000  1324.09  2257.60
  5  -48.000  1309.69  2264.90
  5  -46.000  1300.39  2268.30
  5  -44.000  1290.09  2271.90
  5  -42.000  1273.39  2274.10
  5  -40.000  1267.09  2283.20
  5  -38.000  1264.89  2287.60
  5  -36.000  1260.69  2291.40
  5  -34.000  1249.89  2294.10
  5  -32.000  1249.19  2299.40
  5  -30.000  1250.49  2302.10
  5  -28.000  1245.49  2305.50
  5  -26.000  1246.49  2307.50
  5  -24.000  1247.59  2308.20
  5  -22.000  1248.29  2310.20
  5  -20.000  1246.59  2312.30
  5  -18.000  1260.49  2309.20
  5  -16.000  1269.49  2310.50
  5  -14.000  1276.79  2310.20
  5  -12.000  1283.79  2309.90
  5  -10.000  1289.59  2307.30
  5   -8.000  1298.29  2305.60
  5   -6.000  1311.29  2305.50
  5   -4.000  1319.49  2305.40
  5   -2.000  1330.49  2305.10
  5    0.000  1344.79  2301.10
  5    2.000  1358.19  2297.70
  5    4.000  1374.09  2298.50
  5    6.000  1383.49  2294.50
  5    8.000  1398.89  2292.40
  5   10.000  1409.59  2290.50
  5   12.000  1417.09  2288.60
  5   14.000  1424.29  2290.60
  5   16.000  1422.09  2295.60
  5   18.000  1386.59  2269.30
  5   20.000  1387.49  2267.50
  5   22.000  1399.19  2266.40
  5   24.000  1412.09  2266.10
  5   26.000  1416.59  2261.40
  5   28.000  1430.89  2260.20
  5   30.000  1442.79  2257.60
  5   32.000  1452.09  2256.20
  5   34.000  1468.79  2253.90
  5   36.000  1483.59  2251.50
  5   38.000  1499.39  2251.20
  5   40.000  1514.59  2248.70
  5   42.000  1529.29  2246.80
  5   44.000  1537.19  2245.60
  5   46.000  1560.29  2242.10
  5   48.000  1567.79  2242.40
  5   50.000  1592.79  2239.30
  5   52.000  1609.79  2237.10
  5   54.000  1622.89  2238.60
  5   56.000  1636.29  2238.90
  6  -60.000  2246.60  3050.49
  6  -58.000  2273.20  3050.39
  6  -56.000  2309.20  3051.19
  6  -54.000  2330.60  3052.59
  6  -52.000  2353.10  3051.69
  6  -50.000  2389.50  3050.59
  6  -48.000  2414.10  3055.49
  6  -46.000  2442.80  3055.69
  6  -44.000  2468.70  3056.29
  6  -42.000  2487.60  3056.09
  6  -40.000  2514.80  3062.49
  6  -38.000  2545.50  3064.79
  6  -36.000  2572.80  3066.39
  6  -34.000  2590.40  3067.09
  6  -32.000  2617.30  3070.49
  6  -30.000  2644.60  3071.69
  6  -28.000  2663.70  3073.19
  6  -26.000  2687.90  3073.89
  6  -24.000  2709.80  3073.49
  6  -22.000  2730.30  3074.39
  6  -20.000  2746.70  3075.59
  6  -18.000  2777.40  3071.19
  6  -16.000  2800.90  3072.29
  6  -14.000  2820.80  3071.09
  6  -12.000  2838.80  3070.29
  6  -10.000  2854.20  3067.29
  6   -8.000  2870.40  3065.19
  6   -6.000  2888.90  3065.09
  6   -4.000  2901.30  3065.19
  6   -2.000  2914.50  3064.69
  6    0.000  2930.20  3061.39
  6    2.000  2942.10  3058.29
  6    4.000  2954.80  3059.59
  6    6.000  2959.60  3056.09
  6    8.000  2970.80  3054.89
  6   10.000  2975.90  3054.19
  6   12.000  2979.60  3053.49
  6   14.000  2983.70  3056.19
  6   16.000  2978.60  3061.09
  6   18.000  2887.70  3036.79
  6   20.000  2869.90  3036.79
  6   22.000  2861.30  3037.59
  6   24.000  2852.90  3039.19
  6   26.000  2834.20  3036.89
  6   28.000  2822.90  3037.69
  6   30.000  2808.80  3036.79
  6   32.000  2790.10  3037.49
  6   34.000  2778.40  3037.79
  6   36.000  2760.70  3038.29
  6   38.000  2743.60  3040.49
  6   40.000  2724.70  3041.49
  6   42.000  2704.60  3041.39
  6   44.000  2676.10  3042.89
  6   46.000  2659.80  3042.59
  6   48.000  2628.50  3045.59
  6   50.000  2612.90  3045.79
  6   52.000  2587.20  3047.19
  6   54.000  2557.20  3051.69
  6   56.000  2525.70  3055.79
  7  -60.000  2287.71  3166.90
  7  -58.000  2309.41  3167.40
  7  -56.000  2340.81  3168.20
  7  -54.000  2358.71  3170.30
  7  -52.000  2376.61  3169.60
  7  -50.000  2407.81  3169.20
  7  -48.000  2428.91  3174.20
  7  -46.000  2452.91  3174.50
  7  -44.000  2474.91  3175.40
  7  -42.000  2489.61  3175.40
  7  -40.000  2512.51  3182.10
  7  -38.000  2538.91  3184.60
  7  -36.000  2561.21  3186.60
  7  -34.000  2574.81  3187.60
  7  -32.000  2597.11  3191.10
  7  -30.000  2619.91  3192.90
  7  -28.000  2634.91  3194.80
  7  -26.000  2655.11  3195.50
  7  -24.000  2673.41  3195.90
  7  -22.000  2689.21  3196.50
  7  -20.000  2701.71  3197.90
  7  -18.000  2727.91  3193.90
  7  -16.000  2747.61  3194.60
  7  -14.000  2763.11  3193.60
  7  -12.000  2777.31  3193.40
  7  -10.000  2789.41  3190.90
  7   -8.000  2801.81  3188.60
  7   -6.000  2817.21  3188.90
  7   -4.000  2825.61  3189.20
  7   -2.000  2835.51  3189.10
  7    0.000  2847.61  3185.70
  7    2.000  2856.61  3182.80
  7    4.000  2866.61  3184.30
  7    6.000  2868.71  3181.10
  7    8.000  2877.11  3181.30
  7   10.000  2880.41  3180.30
  7   12.000  2881.31  3179.60
  7   14.000  2883.21  3183.20
  7   16.000  2875.81  3189.70
  7   18.000  2780.71  3163.80
  7   20.000  2762.11  3162.90
  7   22.000  2752.31  3163.80
  7   24.000  2741.31  3165.70
  7   26.000  2721.41  3163.40
  7   28.000  2708.81  3164.60
  7   30.000  2693.21  3163.40
  7   32.000  2673.51  3164.10
  7   34.000  2660.81  3164.60
  7   36.000  2642.31  3165.30
  7   38.000  2625.51  3166.90
  7   40.000  2607.11  3167.70
  7   42.000  2585.91  3168.40
  7   44.000  2556.91  3169.40
  7   46.000  2541.61  3168.90
  7   48.000  2510.41  3172.60
  7   50.000  2493.91  3172.80
  7   52.000  2469.91  3173.50
  7   54.000  2440.31  3178.20
  7   56.000  2409.81  3182.20
