# MarkerIndex 
# TiltAngle (degrees)
# PositionX (px)
# PositionY (px)
# 
  0  -60.000  1565.30  1028.81
  0  -58.000  1614.90  1029.21
  0  -56.000  1654.10  1028.91
  0  -54.000  1698.80  1031.81
  0  -52.000  1742.30  1026.81
  0  -50.000  1782.60  1029.31
  0  -48.000  1825.40  1029.31
  0  -46.000  1869.60  1026.31
  0  -44.000  1908.90  1026.41
  0  -42.000  1951.50  1027.31
  0  -40.000  1992.70  1026.71
  0  -38.000  2037.40  1022.81
  0  -36.000  2079.40  1025.11
  0  -34.000  2125.30  1027.51
  0  -32.000  2172.20  1024.91
  0  -30.000  2204.40  1025.31
  0  -28.000  2246.20  1026.41
  0  -26.000  2291.10  1027.11
  0  -24.000  2329.30  1026.11
  0  -22.000  2362.90  1024.31
  0  -20.000  2406.30  1020.91
  0  -18.000  2443.60  1019.71
  0  -16.000  2483.30  1020.81
  0  -14.000  2527.70  1015.31
  0  -12.000  2560.60  1011.21
  0  -10.000  2596.80  1008.61
  0   -8.000  2626.90  1010.21
  0   -6.000  2663.60  1005.41
  0   -4.000  2696.80  1002.21
  0   -2.000  2728.60   997.91
  0    0.000  2758.80   994.71
  0    2.000  2786.30   990.31
  0    4.000  2818.10   990.41
  0    6.000  2841.40   987.71
  0    8.000  2864.30   986.21
  0   10.000  2883.80   984.71
  0   12.000  2894.30   981.91
  0   14.000  2897.70   987.71
  0   16.000  2953.70   951.81
  0   18.000  2962.50   952.11
  0   20.000  2978.60   950.41
  0   22.000  2991.60   946.71
  0   24.000  2994.70   942.81
  0   26.000  3010.40   941.81
  0   28.000  3018.40   941.81
  0   30.000  3024.30   941.51
  0   32.000  3032.10   937.81
  0   34.000  3042.40   934.61
  0   36.000  3046.10   933.81
  0   38.000  3048.50   934.31
  0   40.000  3049.80   932.81
  0   42.000  3037.30   932.31
  0   44.000  3044.50   930.81
  0   46.000  3026.40   931.91
  0   48.000  3032.70   929.91
  0   50.000  3022.80   927.81
  0   52.000  3002.40   928.21
  0   54.000  2979.50   931.11
  1  -60.000   724.30  1525.20
  1  -58.000   723.60  1528.50
  1  -56.000   715.10  1532.20
  1  -54.000   711.80  1538.60
  1  -52.000   708.80  1537.30
  1  -50.000   704.30  1542.80
  1  -48.000   703.60  1546.20
  1  -46.000   704.90  1546.10
  1  -44.000   703.60  1550.10
  1  -42.000   706.10  1553.40
  1  -40.000   709.70  1555.40
  1  -38.000   717.70  1554.30
  1  -36.000   725.30  1559.20
  1  -34.000   738.60  1564.20
  1  -32.000   754.20  1563.10
  1  -30.000   756.20  1565.70
  1  -28.000   769.90  1569.30
  1  -26.000   788.70  1571.70
  1  -24.000   804.10  1572.20
  1  -22.000   815.70  1571.80
  1  -20.000   838.90  1570.30
  1  -18.000   858.40  1569.80
  1  -16.000   882.10  1572.10
  1  -14.000   911.60  1567.70
  1  -12.000   932.70  1564.60
  1  -10.000   958.80  1562.30
  1   -8.000   981.20  1564.20
  1   -6.000  1012.20  1559.20
  1   -4.000  1041.60  1556.50
  1   -2.000  1070.20  1552.30
  1    0.000  1101.60  1547.90
  1    2.000  1131.20  1544.20
  1    4.000  1167.30  1543.90
  1    6.000  1198.10  1540.90
  1    8.000  1231.10  1538.90
  1   10.000  1264.70  1537.30
  1   12.000  1292.90  1534.50
  1   14.000  1319.30  1539.10
  1   16.000  1372.80  1497.10
  1   18.000  1399.50  1494.90
  1   20.000  1436.10  1492.20
  1   22.000  1470.50  1486.10
  1   24.000  1497.20  1480.50
  1   26.000  1538.70  1477.40
  1   28.000  1574.20  1474.70
  1   30.000  1609.60  1472.60
  1   32.000  1649.10  1466.10
  1   34.000  1691.70  1460.10
  1   36.000  1729.10  1456.90
  1   38.000  1766.50  1454.20
  1   40.000  1805.90  1449.60
  1   42.000  1833.30  1445.90
  1   44.000  1880.30  1440.80
  1   46.000  1904.40  1439.60
  1   48.000  1953.70  1433.90
  1   50.000  1988.70  1428.90
  1   52.000  2015.40  1424.90
  1   54.000  2040.30  1424.60
  2  -60.000   757.09  2307.11
  2  -58.000   751.39  2311.31
  2  -56.000   738.19  2315.31
  2  -54.000   730.29  2321.61
  2  -52.000   722.49  2320.31
  2  -50.000   713.19  2325.91
  2  -48.000   707.59  2329.61
  2  -46.000   704.39  2329.61
  2  -44.000   698.39  2333.61
  2  -42.000   696.49  2337.11
  2  -40.000   696.09  2339.71
  2  -38.000   700.19  2338.81
  2  -36.000   703.09  2343.91
  2  -34.000   711.79  2348.91
  2  -32.000   723.39  2348.81
  2  -30.000   720.89  2351.21
  2  -28.000   730.89  2354.91
  2  -26.000   746.09  2357.71
  2  -24.000   757.69  2358.41
  2  -22.000   765.79  2358.41
  2  -20.000   785.79  2356.61
  2  -18.000   801.69  2356.71
  2  -16.000   821.89  2358.91
  2  -14.000   849.39  2354.61
  2  -12.000   867.69  2351.61
  2  -10.000   890.89  2349.81
  2   -8.000   911.09  2352.31
  2   -6.000   939.09  2347.41
  2   -4.000   966.89  2344.61
  2   -2.000   993.59  2340.41
  2    0.000  1023.09  2337.11
  2    2.000  1050.89  2332.41
  2    4.000  1085.59  2332.71
  2    6.000  1114.79  2329.81
  2    8.000  1147.49  2328.31
  2   10.000  1180.79  2326.81
  2   12.000  1210.49  2324.31
  2   14.000  1239.59  2330.31
  2   16.000  1287.09  2287.21
  2   18.000  1313.39  2284.81
  2   20.000  1349.89  2282.11
  2   22.000  1385.29  2276.31
  2   24.000  1412.19  2270.81
  2   26.000  1453.79  2268.31
  2   28.000  1490.29  2264.91
  2   30.000  1526.69  2262.41
  2   32.000  1566.69  2256.31
  2   34.000  1610.59  2249.81
  2   36.000  1649.79  2246.61
  2   38.000  1690.09  2243.81
  2   40.000  1730.59  2238.61
  2   42.000  1760.39  2234.81
  2   44.000  1809.89  2230.41
  2   46.000  1837.19  2229.11
  2   48.000  1888.69  2222.41
  2   50.000  1926.59  2216.91
  2   52.000  1955.89  2213.31
  2   54.000  1983.59  2212.11
  3  -60.000  1391.61  2479.19
  3  -58.000  1416.61  2481.49
  3  -56.000  1433.31  2483.39
  3  -54.000  1454.11  2488.19
  3  -52.000  1474.31  2484.09
  3  -50.000  1490.91  2489.09
  3  -48.000  1511.21  2491.19
  3  -46.000  1533.81  2488.89
  3  -44.000  1551.71  2490.89
  3  -42.000  1572.41  2493.19
  3  -40.000  1592.71  2493.69
  3  -38.000  1617.81  2491.29
  3  -36.000  1640.91  2494.69
  3  -34.000  1668.71  2498.69
  3  -32.000  1697.51  2497.29
  3  -30.000  1712.21  2498.09
  3  -28.000  1736.91  2501.09
  3  -26.000  1765.21  2502.39
  3  -24.000  1789.31  2502.39
  3  -22.000  1808.71  2501.29
  3  -20.000  1838.51  2499.09
  3  -18.000  1863.31  2498.09
  3  -16.000  1890.81  2500.09
  3  -14.000  1924.41  2495.49
  3  -12.000  1947.61  2492.09
  3  -10.000  1974.51  2489.69
  3   -8.000  1996.31  2491.89
  3   -6.000  2025.71  2487.29
  3   -4.000  2052.51  2484.19
  3   -2.000  2077.91  2480.59
  3    0.000  2104.61  2477.19
  3    2.000  2128.21  2472.89
  3    4.000  2156.91  2472.79
  3    6.000  2179.11  2471.19
  3    8.000  2202.11  2470.09
  3   10.000  2223.81  2469.29
  3   12.000  2239.91  2467.69
  3   14.000  2251.81  2473.69
  3   16.000  2301.31  2432.19
  3   18.000  2313.81  2431.89
  3   20.000  2334.81  2430.09
  3   22.000  2354.21  2425.59
  3   24.000  2364.21  2421.59
  3   26.000  2387.61  2419.69
  3   28.000  2404.71  2418.89
  3   30.000  2420.51  2418.19
  3   32.000  2438.91  2413.39
  3   34.000  2460.81  2409.59
  3   36.000  2476.31  2407.89
  3   38.000  2492.21  2406.59
  3   40.000  2507.41  2404.19
  3   42.000  2510.91  2402.19
  3   44.000  2532.81  2400.09
  3   46.000  2531.91  2400.69
  3   48.000  2554.71  2396.39
  3   50.000  2563.11  2393.89
  3   52.000  2562.61  2392.29
  3   54.000  2559.21  2393.79
  4  -60.000  1195.20   378.70
  4  -58.000  1227.30   380.10
  4  -56.000  1251.60   381.10
  4  -54.000  1280.30   384.90
  4  -52.000  1308.60   381.10
  4  -50.000  1334.40   384.50
  4  -48.000  1362.80   385.80
  4  -46.000  1393.10   383.30
  4  -44.000  1419.40   384.70
  4  -42.000  1449.10   387.10
  4  -40.000  1479.10   387.60
  4  -38.000  1512.10   384.10
  4  -36.000  1542.80   387.20
  4  -34.000  1577.80   390.10
  4  -32.000  1615.20   387.80
  4  -30.000  1637.50   388.50
  4  -28.000  1670.40   390.50
  4  -26.000  1706.80   391.80
  4  -24.000  1738.20   390.80
  4  -22.000  1765.50   389.60
  4  -20.000  1802.40   386.30
  4  -18.000  1833.80   384.40
  4  -16.000  1869.40   386.30
  4  -14.000  1909.20   381.10
  4  -12.000  1939.10   376.90
  4  -10.000  1972.40   374.40
  4   -8.000  2000.70   376.10
  4   -6.000  2036.10   370.80
  4   -4.000  2068.70   367.70
  4   -2.000  2099.60   363.60
  4    0.000  2131.30   359.70
  4    2.000  2160.70   355.20
  4    4.000  2194.50   355.10
  4    6.000  2220.80   352.30
  4    8.000  2248.50   350.10
  4   10.000  2273.40   348.40
  4   12.000  2291.40   345.30
  4   14.000  2303.70   349.60
  4   16.000  2358.20   313.10
  4   18.000  2373.60   312.40
  4   20.000  2397.90   310.60
  4   22.000  2418.80   305.90
  4   24.000  2430.50   301.70
  4   26.000  2455.60   299.70
  4   28.000  2473.20   298.50
  4   30.000  2489.70   297.90
  4   32.000  2508.60   293.30
  4   34.000  2531.20   289.10
  4   36.000  2546.60   288.10
  4   38.000  2561.80   286.80
  4   40.000  2576.80   284.20
  4   42.000  2577.70   282.70
  4   44.000  2599.20   280.60
  4   46.000  2596.40   281.20
  4   48.000  2617.20   277.30
  4   50.000  2622.80   274.80
  4   52.000  2618.90   273.50
  4   54.000  2612.30   275.10
